#                                                                     
# ooooo   oooo ..     ooo        ooo ooooooooo.    .oooo.             
#  `88.   .8" .88.    `88.       .88 `88"   `Y8b  dP"  `Yb            
#   `88. .8" .8"88.    888b     d"88  88     888 88      88           
#    `88.8" .8" `88.   8 Y88. .P  88  88oooo888" 88      88           
#     `88" .88ooo888.  8  `888"   88  88    `88b 88      88           
#      88 .8"     `88. 8    Y     88  88    .88P `8b    d8"           
#     o88o88o      888o8          88 o88bood8P"   `Ybod8P"            
#                                                                     
#                                                                     
# Version 5.1.0 Revision 22214 Hash (prev commit) aa5047c1f           
#             Branch is fixes-photoluminescence                       
#                   MPI+HDF5_MPI_IO Build                             
#                 http://www.yambo-code.org                           
#
# Absorption @ Q(1):  0.100000000E-4   0.00000000      0.00000000    [q->0 direction]
#
# [GEN] GF Energies                               : Slater exchange(X)+Perdew & Zunger(C)
# [GEN] Green`s Function                          : Resonant
#
# [GEN] Gauge                                     : Length
# [GEN] [r,Vnl] included                          : yes
#
# DIP band range                                  :   2   7
# DIP band range limits                           :   4   5
# DIP e/h energy range                            :  -1.00000000     -1.00000000    [eV]
# RL vectors in the sum                           :   749
# [r,Vnl] included                                : yes
# Bands ordered                                   : yes
# Direct v evaluation                             : no
# Approach used                                   : G-space v
# Dipoles computed                                : R V P
# Wavefunctions                                   : Slater exchange(X)+Perdew & Zunger(C)
#
#
# [K] Identifier                                  :   9695
# [K] Dimension                                   :   576
# [K] Bands                                       :   2   7
# [K] Exchange res                                : no
# [K] Correlation res                             : no
# [K] Kernel`s coupling                           : no
# [K] Exchange cpl                                : no
# [K] Correlation cpl                             : no
# [K] W interaction is bare                       : no
# [K] ALDA kernel in R-space                      : no
# [K] E/h energy range                            :  -1.00000000     -1.00000000    [eV]
# [K] Coupling range                              :   100.000000      100.000000    [o/o]
# [X] Response Kind                               : BAR
#
# Diamagnetic term                                
# Ao                                              :  -6.58327147    [nel]
# A                                               :   0.00000000    [nel]
#
#    E[1] [eV]          Im(eps)            Re(eps)            Im(eps_o)          Re(eps_o)
#
        7.500000           0.006461           1.471277           0.006461           1.471277
        7.558528           0.006558           1.473811           0.006558           1.473811
        7.617057           0.006657           1.476375           0.006657           1.476375
        7.675585           0.006759           1.478968           0.006759           1.478968
        7.734114           0.006862           1.481593           0.006862           1.481593
        7.792642           0.006967           1.484249           0.006967           1.484249
        7.851171           0.007075           1.486937           0.007075           1.486937
        7.909699           0.007185           1.489657           0.007185           1.489657
        7.968227           0.007297           1.492411           0.007297           1.492411
        8.026756           0.007411           1.495199           0.007411           1.495199
        8.085284           0.007528           1.498021           0.007528           1.498021
        8.143813           0.007648           1.500879           0.007648           1.500879
        8.202341           0.007770           1.503772           0.007770           1.503772
        8.260870           0.007894           1.506703           0.007894           1.506703
        8.319398           0.008021           1.509671           0.008021           1.509671
        8.377926           0.008151           1.512677           0.008151           1.512677
        8.436455           0.008284           1.515723           0.008284           1.515723
        8.494983           0.008420           1.518808           0.008420           1.518808
        8.553512           0.008559           1.521934           0.008559           1.521934
        8.612040           0.008701           1.525102           0.008701           1.525102
        8.670569           0.008847           1.528313           0.008847           1.528313
        8.729097           0.008995           1.531567           0.008995           1.531567
        8.787625           0.009148           1.534865           0.009148           1.534865
        8.846154           0.009303           1.538209           0.009303           1.538209
        8.904682           0.009463           1.541600           0.009463           1.541600
        8.963211           0.009626           1.545038           0.009626           1.545038
        9.021739           0.009793           1.548524           0.009793           1.548524
        9.080268           0.009965           1.552061           0.009965           1.552061
        9.138796           0.010140           1.555648           0.010140           1.555648
        9.197324           0.010320           1.559288           0.010320           1.559288
        9.255853           0.010505           1.562981           0.010505           1.562981
        9.314381           0.010694           1.566729           0.010694           1.566729
        9.372910           0.010888           1.570533           0.010888           1.570533
        9.431438           0.011087           1.574394           0.011087           1.574394
        9.489967           0.011291           1.578314           0.011291           1.578314
        9.548495           0.011500           1.582295           0.011500           1.582295
        9.607023           0.011715           1.586337           0.011715           1.586337
        9.665552           0.011936           1.590443           0.011936           1.590443
        9.724080           0.012163           1.594614           0.012163           1.594614
        9.782609           0.012396           1.598852           0.012396           1.598852
        9.841137           0.012636           1.603159           0.012636           1.603159
        9.899666           0.012882           1.607536           0.012882           1.607536
        9.958194           0.013136           1.611985           0.013136           1.611985
        10.01672           0.013396           1.616509           0.013396           1.616509
        10.07525           0.013665           1.621110           0.013665           1.621110
        10.13378           0.013941           1.625789           0.013941           1.625789
        10.19231           0.014225           1.630549           0.014225           1.630549
        10.25084           0.014518           1.635392           0.014518           1.635392
        10.30936           0.014820           1.640321           0.014820           1.640321
        10.36789           0.015132           1.645339           0.015132           1.645339
        10.42642           0.015453           1.650447           0.015453           1.650447
        10.48495           0.015784           1.655649           0.015784           1.655649
        10.54348           0.016126           1.660948           0.016126           1.660948
        10.60201           0.016479           1.666346           0.016479           1.666346
        10.66054           0.016844           1.671847           0.016844           1.671847
        10.71906           0.017221           1.677454           0.017221           1.677454
        10.77759           0.017611           1.683171           0.017611           1.683171
        10.83612           0.018014           1.689001           0.018014           1.689001
        10.89465           0.018432           1.694949           0.018432           1.694949
        10.95318           0.018864           1.701017           0.018864           1.701017
        11.01171           0.019313           1.707211           0.019313           1.707211
        11.07023           0.019777           1.713535           0.019777           1.713535
        11.12876           0.020259           1.719993           0.020259           1.719993
        11.18729           0.020759           1.726591           0.020759           1.726591
        11.24582           0.021279           1.733333           0.021279           1.733333
        11.30435           0.021819           1.740225           0.021819           1.740225
        11.36288           0.022381           1.747273           0.022381           1.747273
        11.42140           0.022966           1.754484           0.022966           1.754484
        11.47993           0.023575           1.761863           0.023575           1.761863
        11.53846           0.024209           1.769417           0.024209           1.769417
        11.59699           0.024872           1.777154           0.024872           1.777154
        11.65552           0.025563           1.785082           0.025563           1.785082
        11.71405           0.026286           1.793208           0.026286           1.793208
        11.77258           0.027042           1.801542           0.027042           1.801542
        11.83110           0.027833           1.810093           0.027833           1.810093
        11.88963           0.028663           1.818871           0.028663           1.818871
        11.94816           0.029533           1.827886           0.029533           1.827886
        12.00669           0.030448           1.837151           0.030448           1.837151
        12.06522           0.031410           1.846678           0.031410           1.846678
        12.12375           0.032423           1.856480           0.032423           1.856480
        12.18227           0.033492           1.866571           0.033492           1.866571
        12.24080           0.034620           1.876968           0.034620           1.876968
        12.29933           0.035814           1.887686           0.035814           1.887686
        12.35786           0.037080           1.898745           0.037080           1.898745
        12.41639           0.038423           1.910164           0.038423           1.910164
        12.47492           0.039852           1.921964           0.039852           1.921964
        12.53344           0.041376           1.934171           0.041376           1.934171
        12.59197           0.043003           1.946810           0.043003           1.946810
        12.65050           0.044747           1.959909           0.044747           1.959909
        12.70903           0.046619           1.973501           0.046619           1.973501
        12.76756           0.048635           1.987622           0.048635           1.987622
        12.82609           0.050814           2.002310           0.050814           2.002310
        12.88462           0.053177           2.017610           0.053177           2.017610
        12.94314           0.055749           2.033571           0.055749           2.033571
        13.00167           0.058562           2.050250           0.058562           2.050250
        13.06020           0.061651           2.067710           0.061651           2.067710
        13.11873           0.065063           2.086023           0.065063           2.086023
        13.17726           0.068855           2.105272           0.068855           2.105272
        13.23579           0.073096           2.125553           0.073096           2.125553
        13.29431           0.077875           2.146976           0.077875           2.146976
        13.35284           0.083309           2.169670           0.083309           2.169670
        13.41137           0.089546           2.193785           0.089546           2.193785
        13.46990           0.096784           2.219494           0.096784           2.219494
        13.52843           0.105291           2.247002           0.105291           2.247002
        13.58696           0.115432           2.276540           0.115432           2.276540
        13.64548           0.127719           2.308367           0.127719           2.308367
        13.70401           0.142881           2.342757           0.142881           2.342757
        13.76254           0.161975           2.379949           0.161975           2.379949
        13.82107           0.186558           2.420046           0.186558           2.420046
        13.87960           0.218939           2.462754           0.218939           2.462754
        13.93813           0.262484           2.506791           0.262484           2.506791
        13.99666           0.321772           2.548589           0.321772           2.548589
        14.05518           0.401687           2.579763           0.401687           2.579763
        14.11371           0.502760           2.583737           0.502760           2.583737
        14.17224           0.608973           2.537574           0.608973           2.537574
        14.23077           0.677152           2.434537           0.677152           2.434537
        14.28930           0.666469           2.316181           0.666469           2.316181
        14.34783           0.591919           2.242819           0.591919           2.242819
        14.40635           0.502826           2.231577           0.502826           2.231577
        14.46488           0.429919           2.263915           0.429919           2.263915
        14.52341           0.379879           2.319179           0.379879           2.319179
        14.58194           0.349694           2.385358           0.349694           2.385358
        14.64047           0.334981           2.457096           0.334981           2.457096
        14.69900           0.332408           2.532547           0.332408           2.532547
        14.75753           0.339978           2.611526           0.339978           2.611526
        14.81605           0.356825           2.694619           0.356825           2.694619
        14.87458           0.383035           2.782795           0.383035           2.782795
        14.93311           0.419582           2.877237           0.419582           2.877237
        14.99164           0.468408           2.979246           0.468408           2.979246
        15.05017           0.532662           3.090131           0.532662           3.090131
        15.10870           0.617141           3.210997           0.617141           3.210997
        15.16722           0.728992           3.342245           0.728992           3.342245
        15.22575           0.878751           3.482454           0.878751           3.482454
        15.28428           1.081594           3.625927           1.081594           3.625927
        15.34281           1.358039           3.757500           1.358039           3.757500
        15.40134           1.730893           3.842648           1.730893           3.842648
        15.45987           2.209305           3.813445           2.209305           3.813445
        15.51839           2.744577           3.567819           2.744577           3.567819
        15.57692           3.173278           3.037483           3.173278           3.037483
        15.63545           3.276959           2.335564           3.276959           2.335564
        15.69398           3.019829           1.744084           3.019829           1.744084
        15.75251           2.601041           1.438701           2.601041           1.438701
        15.81104           2.222554           1.385688           2.222554           1.385688
        15.86957           1.971653           1.476769           1.971653           1.476769
        15.92809           1.863184           1.621550           1.863184           1.621550
        15.98662           1.888631           1.752630           1.888631           1.752630
        16.04515           2.025837           1.805215           2.025837           1.805215
        16.10368           2.215605           1.712175           2.215605           1.712175
        16.16221           2.337707           1.449778           2.337707           1.449778
        16.22074           2.270789           1.111231           2.270789           1.111231
        16.27926           2.021122           0.857967           2.021122           0.857967
        16.33779           1.706639           0.766212           1.706639           0.766212
        16.39632           1.425418           0.805853           1.425418           0.805853
        16.45485           1.211850           0.919982           1.211850           0.919982
        16.51338           1.064779           1.068135           1.064779           1.068135
        16.57191           0.973746           1.228753           0.973746           1.228753
        16.63043           0.929606           1.391435           0.929606           1.391435
        16.68896           0.926983           1.550430           0.926983           1.550430
        16.74749           0.963617           1.700416           0.963617           1.700416
        16.80602           1.038289           1.834056           1.038289           1.834056
        16.86455           1.148187           1.941168           1.148187           1.941168
        16.92308           1.285391           2.008384           1.285391           2.008384
        16.98161           1.428761           2.023381           1.428761           2.023381
        17.04013           1.543396           1.995799           1.543396           1.995799
        17.09866           1.615108           1.970367           1.615108           1.970367
        17.15719           1.680996           1.986658           1.680996           1.986658
        17.21572           1.799200           2.034986           1.799200           2.034986
        17.27425           2.006070           2.061565           2.006070           2.061565
        17.33278           2.295176           1.987875           2.295176           1.987875
        17.39130           2.593723           1.737154           2.593723           1.737154
        17.44983           2.758576           1.304258           2.758576           1.304258
        17.50836           2.673006           0.820852           2.673006           0.820852
        17.56689           2.375073           0.466162           2.375073           0.466162
        17.62542           2.007624           0.309141           2.007624           0.309141
        17.68395           1.680098           0.307451           1.680098           0.307451
        17.74247           1.431468           0.392659           1.431468           0.392659
        17.80100           1.260333           0.513170           1.260333           0.513170
        17.85953           1.150342           0.637237           1.150342           0.637237
        17.91806           1.079292           0.748844           1.079292           0.748844
        17.97659           1.025110           0.848475           1.025110           0.848475
        18.03512           0.977434           0.949857           0.977434           0.949857
